       Omega           X           Y   Intensity
        8.00      708.00     1761.00     516.643
        5.00     1059.00      634.00     888.086
        0.00     1238.00     1469.00     991.639
       11.00     1224.00     1476.00     402.959
       29.00     1222.00     1478.00     180.093
       35.00     1233.00     1472.00     136.196
       47.00     1224.00     1477.00     288.149
       62.00     1228.00     1475.00    1279.789
       77.00     1229.00     1474.00    1339.445
        2.00     1479.00     1522.00      81.042
        7.00     1061.00      286.00      66.409
       10.00     1054.00      286.00      65.284
       19.00     1575.00      336.00     184.596
       26.00     1571.00      331.00     190.224
       28.00     1092.00      236.00     909.472
       29.00     1818.00      379.50     235.247
       33.00     1189.00     1874.00     117.061
       36.00      709.00     1762.00     592.057
       36.00     1069.00      636.00     293.777
       34.00     1306.00      693.00      84.419
       43.00      748.00     1364.00     558.290
       49.00     1352.00      296.00     265.638
       48.00     1594.00      353.00      74.289
       49.00      950.00     1816.00     762.020
       52.00     1190.00     1873.00     122.689
       55.00      588.00      518.00     129.442
       54.50     1839.50      410.50      72.037
       57.00     1068.00      637.00      94.549
       59.00     1469.00     1532.00     109.182
       66.00      603.00      129.00     180.093
       68.00     1471.00     1529.00     101.303
       71.00      989.00     1419.00     561.666
       69.00     1344.00      295.00      67.535
       69.00     1358.00      300.00      82.168
       72.00      578.00      528.00     129.442
       92.00      598.00      129.00     228.494
       92.00      601.00      129.00     228.494
       91.00     1154.00     1924.00      94.549
      106.00     1305.00      690.00     792.411
      116.00      330.00      477.00     816.048
      118.00      455.00     1753.00      70.912
      118.00     1046.00      287.00      77.665
      116.00     1064.00      635.00     929.732
      116.00     1105.00      238.00     767.648
      116.00     1267.00     1076.50     438.978
      149.00     1264.00     1087.00    1813.316
      157.00     1264.00     1087.00    1673.743
      186.00     1266.00     1085.00    2781.318
      123.00     1519.00     1011.00      94.549
      127.00     1519.00     1011.00      94.549
      133.00     1518.00     1011.00      93.423
      133.00     1520.00     1017.00      93.423
      141.00     1520.00     1018.00      94.549
      149.00     1520.00     1017.00      97.926
      161.00     1520.00     1017.00     101.303
      172.00     1519.00     1016.00     102.428
      178.00     1520.00     1018.00     103.554
      186.00     1519.00     1016.00      91.172
      193.50     1518.00     1017.00      93.423
      200.50     1518.00     1017.00      90.047
      214.00     1518.00     1017.00      84.419
      223.00     1519.00     1019.00      81.042
      121.00     1521.00     1170.00     147.451
      126.00     1534.00     1120.00      88.921
      127.00     1521.00     1177.00      65.284
      127.00     1526.00     1154.00      69.786
      128.00     1521.00     1170.00     133.944
      128.00     1528.00     1146.00      63.033
      134.00     1521.00     1177.00      61.907
      136.00     1521.00     1170.00     140.698
      142.00     1536.00     1115.00      83.293
      143.00     1521.00     1170.00     140.698
      149.00     1521.00     1170.00     147.451
      149.00     1526.00     1153.00     113.684
      150.00     1534.00     1119.00      72.037
      157.00     1521.00     1170.00     200.354
      157.00     1528.00     1146.00     135.070
      158.00     1534.00     1118.50      65.284
      172.00     1521.00     1170.00     120.437
      179.00     1521.00     1170.00     127.191
      185.67     1532.00     1136.33     318.540
      186.00     1521.00     1170.00     154.205
      193.00     1521.00     1170.00     173.340
      193.00     1532.00     1135.00     324.168
      199.00     1521.00     1170.00     108.056
      208.00     1521.00     1170.00     127.191
      215.00     1521.00     1170.00     147.451
      221.00     1521.00     1170.00     133.944
      228.00     1521.00     1170.00     120.437
      119.00     1545.00      744.00     135.070
      116.00     1835.00      403.00     173.340
      132.00      864.00      181.00     164.335
      133.00     1183.00      484.00     118.186
      138.00     1104.00      238.00    1151.472
      169.00      618.00      122.00     242.001
      180.00      470.00     1368.00     226.242
      203.00      947.00     1501.00     214.987
      211.00      206.00     1697.00      90.047
      215.00     1422.00     1980.00     217.238
      215.00     1704.00     1663.00      93.423
      300.00      545.00      923.00    3672.780
      315.00      549.00      905.00    7231.877
      321.00      549.00      907.00    7145.207
      329.00      549.00      908.00    6737.746
      336.00      547.00      917.00    5811.390
      237.00      624.00       77.00     238.624
      238.00      617.00       79.00     230.745
      237.00     1193.00     1516.00      77.665
      250.00     1195.00     1564.00    3080.723
      282.00     1218.00     1556.00    2531.438
      306.00     1213.00     1557.00    4846.764
      313.00     1199.00     1563.00    1189.742
      232.00     1267.00     1077.00     187.973
      233.00     1518.00     1018.00      83.293
      243.00     1518.00     1017.00      76.540
      252.00     1518.00     1019.00      77.665
      258.00     1518.00     1019.00      78.791
      264.00     1518.50     1021.00      70.912
      271.00     1518.00     1021.00      73.163
      279.00     1518.00     1019.00      70.912
      287.00     1518.00     1019.00      69.786
      293.00     1518.00     1021.00      72.037
      299.00     1518.00     1021.50      68.661
      305.00     1518.00     1023.00      66.409
      314.00     1519.00     1021.00      68.661
      322.00     1518.00     1022.00      74.289
      329.00     1520.00     1027.00      65.284
      335.50     1519.50     1024.00      65.284
      346.00     1518.00     1023.00      64.158
      241.00     1837.00      343.00     452.485
      250.00     1837.00      343.00     328.671
      264.00     1837.00      343.00     506.513
      269.00     1845.50      352.50     177.842
      279.00     1837.00      343.00     515.517
      286.00     1837.00      343.00     597.685
      301.00     1837.00      343.00     416.466
      315.00     1837.00      343.00     551.536
      322.50     1837.00      343.00     416.466
      329.00     1837.00      343.00     398.457
      335.00     1837.00      343.00     372.568
      344.00     1837.00      343.00     320.791
      258.00      478.00     1380.00     595.434
      261.00      626.00       74.00     318.540
      271.00      725.00     1502.00     211.610
      279.00      722.00     1500.00     115.935
      274.00      176.00     1828.00     141.824
      282.00      685.00     1943.00     195.852
      305.00      517.00      937.00     112.558
      321.00      520.00      925.00      78.791
      329.00      517.00      941.00     178.968
      335.00      516.00      942.00     200.354
      336.00      520.00      928.00     103.554
      345.00      516.00      944.00     227.368
      345.00      520.00      931.00     118.186
      292.33     1428.33      139.00      88.921
      294.00      862.00      540.00      93.423
      301.00     1696.00     1672.00     176.717
      306.00     1702.00     1667.00     157.582
      313.00      744.00     1430.00     156.456
      306.67      713.33     1495.67     100.177
      316.00     1583.00      689.00     216.112
      313.00      642.00     1437.50      75.414
      309.00      891.00     1989.00     124.940
      314.00      899.00     1990.00     131.693
      322.00      240.00     1328.00      92.298
      313.00     1240.50     1532.00     113.684
      323.00     1216.00     1507.00     218.363
      322.00      639.00       72.00     240.875
      321.00     1228.00     1538.00      69.786
      347.00      309.00      839.00     150.828
      332.00      874.00      134.00     180.093
      341.00      963.00     1504.00     308.410
      346.00      302.00      866.00     110.307
      346.00      898.00     1990.00      81.042
      365.00      301.00      873.00     183.470
      372.00      300.00      876.00     192.475
      378.00      300.00      878.00     181.219
      393.00      303.00      863.00     249.880
      402.00      302.00      867.00     284.773
      424.00      304.00      861.00     361.312
      348.00      368.50      367.00      86.670
      351.00      483.00     1387.00     399.582
      373.00      482.00     1385.00     100.177
      386.67      484.33     1390.33     195.852
      402.00      499.00     1414.00      74.289
      406.00      488.00     1395.00     901.593
      351.00      517.00      944.00     230.745
      356.00      531.00      885.00      66.409
      358.00      516.00      945.00     210.484
      358.00      519.00      933.00     157.582
      366.00      519.00      933.00     181.219
      374.00      528.00      894.00      92.298
      387.00      519.00      937.00     251.005
      387.00      527.00      897.00     117.061
      399.00      518.00      940.00     258.884
      401.00      525.00      904.00     136.196
      409.00      526.00      901.00     157.582
      410.00      517.00      942.00     240.875
      415.00      525.00      905.00     164.335
      417.00      519.00      929.00      65.284
      423.00      524.00      908.00     183.470
      431.00      516.00      945.00     176.717
      437.00      518.50      931.00      79.916
      438.00      516.00      946.00     146.326
      452.00      518.00      934.00      86.670
      452.00      522.00      914.00     343.303
      453.00      515.00      947.00     144.075
      459.00      515.00      947.00     127.191
      459.00      522.00      915.00     374.819
      460.00      517.00      935.00      92.298
      351.00      723.00     1446.00    2169.000
      371.00      723.00     1445.00     626.950
      387.00      725.00     1447.00    1237.017
      406.50      729.00     1449.00    4936.811
      436.00      735.00     1453.00    4670.048
      348.00      787.00      975.00     615.694
      417.00      786.00      984.00      75.414
      427.00      786.00      984.00      58.530
      349.00      836.00      497.00    5429.817
      373.00      842.00      494.00    8163.860
      381.00      853.00      493.00    2223.028
      399.00      856.00      491.00     562.792
      414.00      827.00      500.00     606.690
      417.00      851.00      494.00    1014.151
      435.00      847.00      495.00    5034.737
      452.00      838.00      497.00    6950.481
      351.00     1169.00       65.00     388.326
      348.00     1225.00     1552.00     258.884
      351.00     1204.00     1561.00    1250.524
      368.00     1208.50     1560.00    3926.037
      385.00     1215.00     1557.00    3736.939
      348.00     1213.00     1508.00      93.423
      348.00     1336.00      613.00    3393.636
      348.00     1331.00      553.00     176.717
      351.00     1519.00     1024.00      66.409
      362.00     1520.00     1025.00      67.535
      371.00     1520.00     1025.00      73.163
      379.00     1518.00     1026.00      64.158
      385.00     1518.00     1028.00      64.158
      393.00     1518.00     1025.00      64.158
      405.00     1518.00     1030.00      66.409
      420.00     1518.00     1027.00      65.284
      429.00     1519.00     1028.00      66.409
      438.00     1518.50     1028.00      66.409
      444.00     1518.00     1028.00      69.786
      451.00     1518.00     1029.00      65.284
      461.00     1518.00     1029.00      69.786
      358.00     1653.00     1870.00     310.661
      351.00      732.00     1506.00      68.661
      359.00      721.00     1500.00     115.935
      352.00      931.00      519.00     103.554
      352.00      657.00     1932.00      67.535
      357.00      853.00      539.00      92.298
      358.00     1077.00      549.00    1258.403
      376.00     1082.00      548.00    1513.910
      361.00     1413.00      129.00     298.280
      359.00     1204.00     1513.00     109.182
      359.00     1856.00      369.00     113.684
      364.00     1149.00     1756.00      88.921
      366.00      349.00      388.00     148.577
      387.00     1319.00      601.00    5138.291
      395.00     1323.00      602.00    8145.851
      423.00     1330.00      611.00    2943.402
      442.00     1329.00      610.00     856.569
      459.00     1331.00      611.00    1212.254
      463.00     1307.00      593.00     454.736
      371.00      420.00     1879.50      96.800
      373.00      963.00     1504.00     209.359
      376.00      984.00     1504.00      82.168
      392.00      969.00     1504.00     868.951
      380.00      814.00      519.00     208.233
      387.00      834.00      547.00     429.973
      382.00     1340.00      561.00     103.554
      386.00     1132.00       61.00     443.480
      387.00      923.00     1992.00     336.550
      387.00      728.00     1504.00      87.796
      387.00      824.00      518.00      95.675
      401.00      431.00     1888.00      92.298
      404.00      828.50      516.00      59.656
      405.00      831.00      514.00      59.656
      410.00      840.00      543.00     160.959
      417.00      850.00      543.00      83.293
      435.00     1984.00     1416.00     242.001
      463.00     1977.00     1432.00      86.670
      411.00     1093.00      552.00     114.810
      414.00     1087.00      553.00     109.182
      413.00      839.00      544.00     123.814
      422.00      849.00      544.00     136.196
      421.00     1618.00      165.00      96.800
      431.00     1628.00      169.00     159.833
      428.00      297.00      895.00      61.907
      452.00     1110.00     1991.00     137.321
      452.00     1669.00     1857.00     159.833
      463.00     1670.00     1856.00     121.563
      452.00      925.00     1697.00     109.182
      459.00     1875.00      222.00     167.712
      455.00     1157.00       67.00      90.047
      465.00      515.00      947.00     108.056
      467.00      518.00      936.00      87.796
      467.00      521.00      918.00     363.564
      472.00      515.00      948.00     102.428
      473.00      517.00      937.00      88.921
      485.00      517.00      938.00      81.042
      486.00      517.00      941.00      81.042
      491.00      517.00      941.00      81.042
      501.00      517.00      941.00      81.042
      501.00      520.00      925.00     167.712
      515.00      520.00      928.00     141.824
      530.00      516.00      945.00      56.279
      530.00      520.00      930.00     128.317
      536.00      519.00      932.00     127.191
      544.00      519.00      933.00     108.056
      550.00      519.00      932.00     103.554
      564.00      518.33      933.00      81.042
      469.00     1078.00      549.00    1300.049
      474.00     1147.00       65.00     369.192
      465.00     1309.00      594.00     673.099
      477.00     1326.00      606.00    6134.433
      505.00     1319.00      601.00    5475.966
      464.00     1878.00      226.00     119.312
      465.00     1988.00     1405.00      72.037
      479.00     1976.00     1436.00     610.067
      485.00     1976.00     1435.00     580.801
      501.00     1978.00     1431.00     640.457
      501.00     1987.00     1406.00     405.210
      530.00     1980.00     1437.00      69.786
      538.00     1980.00     1437.00      63.033
      473.00      843.00      546.00     171.089
      473.00      685.00     1643.00     135.070
      480.00     1186.00     1748.00     408.587
      491.00     1175.50     1751.00     140.698
      487.00      887.00        8.00      94.549
      501.00      402.00      181.00     495.257
      508.00      714.00     1659.00     140.698
      523.00      701.00     1652.00     173.340
      509.00     1178.00     1750.00      66.409
      545.00     1463.00     1384.00     511.015
      551.00     1464.00     1382.00     508.764
      544.00      856.00      307.00     563.918
      550.00     1181.00     1982.00     569.545
      567.00     1559.00      650.00     866.700
      564.00      377.00      199.00     634.829
      560.00      651.00     1890.00     491.880
      560.00      624.00      252.00      77.665
      564.00     1202.00     1745.00     447.982
      566.00      868.00      303.00     737.257
      574.00      878.00      304.00     200.354
      579.00     1815.00      728.00      87.796
      575.00      933.00     1943.00     106.930
      580.00      518.00      935.00      65.284
      580.00      868.00      307.00     115.935
      581.00     1110.00      353.00     251.005
      581.00     1153.00     1987.00     262.261
      608.00     1473.00     1371.50    1501.529
      652.00     1488.00     1350.00    1190.868
      681.00     1482.00     1361.00    2795.951
      580.00     1725.00     1399.00     108.056
      587.00     1727.00     1398.00     101.303
      608.00     1729.00     1393.00     121.563
      580.00     1816.00      731.00      92.298
      593.00      917.00     1941.00     110.307
      600.00      384.50      197.50     128.317
      601.00      385.00      195.00     128.317
      617.00      378.00      202.00     521.145
      633.00      361.00      214.00     580.801
      598.00      962.00     1701.00     158.707
      597.00      346.00      225.00      59.656
      617.00     1159.00     1986.00     194.726
      636.00     1169.00     1985.00     767.648
      636.00     1354.00      406.00      96.800
      652.00      427.00     1858.00     103.554
      653.00     1391.00     1924.00      86.670
      651.00     1950.00     1954.00      90.047
      658.00     1955.00     1951.00      92.298
      652.00     1105.00      354.00     184.596
      651.00     1225.00     1336.00      86.670
      657.00     1226.00     1336.00      79.916
      665.00     1715.00     1650.00      73.163
      679.00     1120.00      111.00     165.461
      695.00     1444.00     1638.00     874.016
      681.00      337.00      636.00      87.796
      687.00      337.00      637.00      96.800
      703.00      439.00     1867.00     219.489
      697.00      537.00      977.00      65.284
      704.00      536.00      974.00      66.409
      708.00      536.00      980.00      65.284
      716.00      536.00      975.00      66.409
      716.00      536.00      979.00      66.409
      723.00      537.00      979.00      64.158
      716.00      579.00      683.00    2332.210
      759.00      565.00      702.00    1947.260
      788.00      573.00      692.00    3064.965
      811.00      572.00      695.00    1293.296
      696.00      896.00       69.00     178.968
      697.00     1139.00      111.00     180.093
      702.00     1517.00     1057.00     175.591
      710.00     1518.00     1057.00     177.842
      716.00     1517.00     1057.00     183.470
      716.00     1517.00     1066.00     120.437
      722.00     1517.00     1058.00     194.726
      730.00     1518.00     1057.00     203.731
      737.00     1518.00     1058.00     193.600
      743.00     1518.00     1058.00     199.228
      745.00     1516.00     1058.00     199.228
      751.00     1517.00     1059.00     210.484
      766.00     1518.00     1059.00     232.996
      772.00     1517.00     1059.00     231.870
